# Positioner: Beamline Energy 
# Detector: MCA 
# Detector count time: 0.5000 sec 
# 
# Columns: (Beamline Energy) 	 (MCA) 
          -0.08               0 
         -0.075               0 
          -0.07               0 
         -0.065               0 
          -0.06               0 
         -0.055               0 
          -0.05               0 
         -0.045               0 
          -0.04               0 
         -0.035               0 
          -0.03               0 
         -0.025               0 
          -0.02               0 
         -0.015               0 
          -0.01               0 
         -0.005               1 
  5.5511151e-17               0 
          0.005               0 
           0.01               0 
          0.015               0 
           0.02               0 
          0.025               0 
           0.03               0 
          0.035               0 
           0.04               0 
          0.045               0 
           0.05               0 
          0.055               0 
           0.06               0 
          0.065               0 
           0.07               0 
          0.075               0 
           0.08               0 
          0.085               0 
           0.09               0 
          0.095               0 
            0.1               0 
          0.105               0 
           0.11               0 
          0.115               0 
           0.12               0 
          0.125               0 
           0.13               0 
          0.135               0 
           0.14               0 
          0.145               0 
           0.15               0 
          0.155               0 
           0.16               0 
          0.165               0 
           0.17               0 
          0.175               0 
           0.18               0 
          0.185               1 
           0.19               0 
          0.195               0 
            0.2               0 
          0.205               0 
           0.21               0 
          0.215               0 
           0.22               0 
          0.225               1 
           0.23               1 
          0.235               0 
           0.24               0 
          0.245               0 
           0.25               0 
          0.255               1 
           0.26               1 
          0.265               0 
           0.27               1 
          0.275               0 
           0.28               1 
          0.285               2 
           0.29               3 
          0.295               2 
            0.3               4 
          0.305               1 
           0.31               2 
          0.315               4 
           0.32               5 
          0.325               3 
           0.33               8 
          0.335               7 
           0.34               6 
          0.345              10 
           0.35              10 
          0.355              10 
           0.36               6 
          0.365               9 
           0.37              11 
          0.375              11 
           0.38              12 
          0.385               9 
           0.39              14 
          0.395               6 
            0.4               9 
          0.405              12 
           0.41              18 
          0.415              14 
           0.42              10 
          0.425               6 
           0.43               6 
          0.435              12 
           0.44               6 
          0.445              12 
           0.45              12 
          0.455              11 
           0.46              10 
          0.465              10 
           0.47              10 
          0.475               4 
           0.48               8 
          0.485               5 
           0.49               2 
          0.495               0 
            0.5               6 
          0.505               3 
           0.51               4 
          0.515               3 
           0.52               1 
          0.525               1 
           0.53               2 
          0.535               1 
           0.54               2 
          0.545               0 
           0.55               0 
          0.555               1 
           0.56               0 
          0.565               2 
           0.57               0 
          0.575               0 
           0.58               0 
          0.585               2 
           0.59               0 
          0.595               0 
            0.6               0 
          0.605               0 
           0.61               1 
          0.615               1 
           0.62               0 
          0.625               0 
           0.63               0 
          0.635               0 
           0.64               0 
          0.645               0 
           0.65               0 
          0.655               0 
           0.66               0 
          0.665               0 
           0.67               0 
          0.675               0 
           0.68               0 
          0.685               0 
           0.69               0 
          0.695               0 
            0.7               0 
          0.705               0 
           0.71               0 
          0.715               0 
           0.72               0 
          0.725               0 
           0.73               0 
          0.735               0 
           0.74               0 
          0.745               0 
           0.75               1 
          0.755               0 
           0.76               5 
          0.765               7 
           0.77               6 
          0.775               5 
           0.78              10 
          0.785               4 
           0.79               9 
          0.795               9 
            0.8               9 
          0.805              12 
           0.81               7 
          0.815               5 
           0.82               3 
          0.825               5 
           0.83               2 
          0.835               6 
           0.84               6 
          0.845               5 
           0.85               9 
          0.855               7 
           0.86              12 
          0.865               3 
           0.87               8 
          0.875               4 
           0.88              12 
          0.885               7 
           0.89               4 
          0.895               9 
            0.9               5 
          0.905               5 
           0.91               8 
          0.915               8 
           0.92               4 
          0.925               8 
           0.93               7 
          0.935               4 
           0.94               2 
          0.945               6 
           0.95               3 
          0.955               6 
           0.96               5 
          0.965               7 
           0.97               7 
          0.975               3 
           0.98               5 
          0.985               7 
           0.99               6 
          0.995               3 
              1               6 
          1.005               6 
           1.01               6 
          1.015               1 
           1.02               6 
          1.025               7 
           1.03               5 
          1.035               0 
           1.04               4 
          1.045              10 
           1.05               4 
          1.055               4 
           1.06               3 
          1.065               5 
           1.07               6 
          1.075               3 
           1.08               6 
          1.085               7 
           1.09               1 
          1.095               2 
            1.1               7 
          1.105               3 
           1.11               5 
          1.115               3 
           1.12               2 
          1.125               6 
           1.13               7 
          1.135               6 
           1.14               3 
          1.145               5 
           1.15               7 
          1.155               7 
           1.16               5 
          1.165               3 
           1.17               4 
          1.175              13 
           1.18               4 
          1.185               5 
           1.19               0 
          1.195               5 
            1.2               4 
          1.205               2 
           1.21               3 
          1.215               6 
           1.22               3 
          1.225               4 
           1.23               3 
          1.235               7 
           1.24               7 
          1.245               4 
           1.25               6 
          1.255               4 
           1.26               3 
          1.265               8 
           1.27               4 
          1.275               5 
           1.28               3 
          1.285               5 
           1.29               6 
          1.295               5 
            1.3               0 
          1.305               2 
           1.31               1 
          1.315               3 
           1.32               1 
          1.325               3 
           1.33               5 
          1.335               4 
           1.34               4 
          1.345               3 
           1.35               2 
          1.355               2 
           1.36               5 
          1.365               1 
           1.37               6 
          1.375               4 
           1.38               4 
          1.385               4 
           1.39               2 
          1.395               2 
            1.4               5 
          1.405               3 
           1.41               2 
          1.415               6 
           1.42               1 
          1.425               1 
           1.43               5 
          1.435               2 
           1.44               0 
          1.445               2 
           1.45               5 
          1.455               5 
           1.46               1 
          1.465               2 
           1.47               1 
          1.475               4 
           1.48               2 
          1.485               1 
           1.49               5 
          1.495               6 
            1.5               2 
          1.505               4 
           1.51               5 
          1.515               1 
           1.52               0 
          1.525               2 
           1.53               8 
          1.535               2 
           1.54               3 
          1.545               3 
           1.55               1 
          1.555               0 
           1.56               4 
          1.565               2 
           1.57               1 
          1.575               3 
           1.58               3 
          1.585               2 
           1.59               1 
          1.595               1 
            1.6               5 
          1.605               5 
           1.61               1 
          1.615               3 
           1.62               1 
          1.625               0 
           1.63               3 
          1.635               0 
           1.64               2 
          1.645               1 
           1.65               2 
          1.655               4 
           1.66               4 
          1.665               6 
           1.67               2 
          1.675               1 
           1.68               1 
          1.685               6 
           1.69               3 
          1.695               3 
            1.7               2 
          1.705               3 
           1.71               2 
          1.715               3 
           1.72               1 
          1.725               3 
           1.73               2 
          1.735               2 
           1.74               3 
          1.745               2 
           1.75               5 
          1.755               3 
           1.76               2 
          1.765               4 
           1.77               4 
          1.775               2 
           1.78               4 
          1.785               1 
           1.79               3 
          1.795               3 
            1.8               2 
          1.805               3 
           1.81               5 
          1.815               0 
           1.82               4 
          1.825               3 
           1.83               0 
          1.835               3 
           1.84               5 
          1.845               2 
           1.85               4 
          1.855               3 
           1.86               5 
          1.865               1 
           1.87               5 
          1.875               3 
           1.88               4 
          1.885               3 
           1.89               2 
          1.895               3 
            1.9               3 
          1.905               1 
           1.91               1 
          1.915               3 
           1.92               4 
          1.925               2 
           1.93               2 
          1.935               0 
           1.94               3 
          1.945               3 
           1.95               5 
          1.955               2 
           1.96               1 
          1.965               1 
           1.97               0 
          1.975               2 
           1.98               3 
          1.985               5 
           1.99               4 
          1.995               0 
              2               2 
          2.005               2 
           2.01               2 
          2.015               3 
           2.02               5 
          2.025               3 
           2.03               2 
          2.035               1 
           2.04               3 
          2.045               1 
           2.05               0 
          2.055               2 
           2.06               2 
          2.065               4 
           2.07               2 
          2.075               0 
           2.08               1 
          2.085               6 
           2.09               2 
          2.095               3 
            2.1               3 
          2.105               7 
           2.11               2 
          2.115               4 
           2.12               3 
          2.125               0 
           2.13               2 
          2.135               1 
           2.14               5 
          2.145               6 
           2.15               0 
          2.155               2 
           2.16               3 
          2.165               0 
           2.17               3 
          2.175               3 
           2.18               4 
          2.185               1 
           2.19               1 
          2.195               2 
            2.2               3 
          2.205               1 
           2.21               2 
          2.215               2 
           2.22               2 
          2.225               3 
           2.23               2 
          2.235               4 
           2.24               1 
          2.245               2 
           2.25               6 
          2.255               4 
           2.26               5 
          2.265               1 
           2.27               1 
          2.275               2 
           2.28               3 
          2.285               3 
           2.29               1 
          2.295               1 
            2.3               2 
          2.305               2 
           2.31               1 
          2.315               3 
           2.32               1 
          2.325               1 
           2.33               5 
          2.335               0 
           2.34               0 
          2.345               3 
           2.35               1 
          2.355               0 
           2.36               4 
          2.365               1 
           2.37               4 
          2.375               1 
           2.38               1 
          2.385               3 
           2.39               1 
          2.395               3 
            2.4               2 
          2.405               3 
           2.41               0 
          2.415               1 
           2.42               3 
          2.425               2 
           2.43               5 
          2.435               3 
           2.44               0 
          2.445               0 
           2.45               2 
          2.455               1 
           2.46               2 
          2.465               2 
           2.47               1 
          2.475               3 
           2.48               0 
          2.485               2 
           2.49               2 
          2.495               5 
            2.5               1 
          2.505               4 
           2.51               1 
          2.515               1 
           2.52               0 
          2.525               0 
           2.53               2 
          2.535               2 
           2.54               2 
          2.545               2 
           2.55               2 
          2.555               4 
           2.56               2 
          2.565               4 
           2.57               2 
          2.575               3 
           2.58               2 
          2.585               1 
           2.59               0 
          2.595               1 
            2.6               2 
          2.605               7 
           2.61               1 
          2.615               2 
           2.62               0 
          2.625               2 
           2.63               2 
          2.635               2 
           2.64               3 
          2.645               0 
           2.65               2 
          2.655               2 
           2.66               0 
          2.665               0 
           2.67               0 
          2.675               2 
           2.68               1 
          2.685               4 
           2.69               1 
          2.695               3 
            2.7               1 
          2.705               1 
           2.71               1 
          2.715               3 
           2.72               0 
          2.725               3 
           2.73               1 
          2.735               0 
           2.74               2 
          2.745               0 
           2.75               1 
          2.755               1 
           2.76               2 
          2.765               1 
           2.77               4 
          2.775               4 
           2.78               0 
          2.785               2 
           2.79               2 
          2.795               3 
            2.8               2 
          2.805               1 
           2.81               1 
          2.815               1 
           2.82               3 
          2.825               5 
           2.83               0 
          2.835               0 
           2.84               3 
          2.845               1 
           2.85               3 
          2.855               1 
           2.86               2 
          2.865               3 
           2.87               1 
          2.875               2 
           2.88               2 
          2.885               1 
           2.89               2 
          2.895               1 
            2.9               0 
          2.905               0 
           2.91               1 
          2.915               3 
           2.92               5 
          2.925               1 
